
  1   1001     1.54056     0.00000     0.00000     0.00000     0.00000    0
     0     0     0
 2Theta	Yobs	Ycal	Yobs-Ycal	Backg	Posr	(hkl)	K
     -5.0000	 14.2422	 14.2422	 -6.2196	  0.0000
     -4.9900	 14.2416	 14.2416	 -6.2196	  0.0000
     -4.9800	 14.2410	 14.2410	 -6.2196	  0.0000
     -4.9700	 14.2406	 14.2406	 -6.2196	  0.0000
     -4.9600	 14.2403	 14.2403	 -6.2196	  0.0000
     -4.9500	 14.2401	 14.2401	 -6.2196	  0.0000
     -4.9400	 14.2400	 14.2400	 -6.2196	  0.0000
     -4.9300	 14.2400	 14.2400	 -6.2196	  0.0000
     -4.9200	 14.2401	 14.2401	 -6.2196	  0.0000
     -4.9100	 14.2402	 14.2402	 -6.2196	  0.0000
     -4.9000	 14.2405	 14.2405	 -6.2196	  0.0000
     -4.8900	 14.2409	 14.2409	 -6.2196	  0.0000
     -4.8800	 14.2413	 14.2413	 -6.2196	  0.0000
     -4.8700	 14.2419	 14.2419	 -6.2196	  0.0000
     -4.8600	 14.2425	 14.2425	 -6.2196	  0.0000
     -4.8500	 14.2432	 14.2432	 -6.2196	  0.0000
     -4.8400	 14.2440	 14.2440	 -6.2196	  0.0000
     -4.8300	 14.2449	 14.2449	 -6.2196	  0.0000
     -4.8200	 14.2459	 14.2459	 -6.2196	  0.0000
     -4.8100	 14.2470	 14.2470	 -6.2196	  0.0000
     -4.8000	 14.2482	 14.2482	 -6.2196	  0.0000
     -4.7900	 14.2495	 14.2495	 -6.2196	  0.0000
     -4.7800	 14.2509	 14.2509	 -6.2196	  0.0000
     -4.7700	 14.2523	 14.2523	 -6.2196	  0.0000
     -4.7600	 14.2539	 14.2539	 -6.2196	  0.0000
     -4.7500	 14.2555	 14.2555	 -6.2196	  0.0000
     -4.7400	 14.2573	 14.2573	 -6.2196	  0.0000
     -4.7300	 14.2591	 14.2591	 -6.2196	  0.0000
     -4.7200	 14.2611	 14.2611	 -6.2196	  0.0000
     -4.7100	 14.2631	 14.2631	 -6.2196	  0.0000
     -4.7000	 14.2653	 14.2653	 -6.2196	  0.0000
     -4.6900	 14.2676	 14.2676	 -6.2196	  0.0000
     -4.6800	 14.2699	 14.2699	 -6.2196	  0.0000
     -4.6700	 14.2724	 14.2724	 -6.2196	  0.0000
     -4.6600	 14.2750	 14.2750	 -6.2196	  0.0000
     -4.6500	 14.2778	 14.2777	 -6.2196	  0.0000
     -4.6400	 14.2806	 14.2806	 -6.2196	  0.0000
     -4.6300	 14.2836	 14.2836	 -6.2196	  0.0000
     -4.6200	 14.2867	 14.2867	 -6.2196	  0.0000
     -4.6100	 14.2899	 14.2899	 -6.2196	  0.0000
     -4.6000	 14.2933	 14.2933	 -6.2196	  0.0000
     -4.5900	 14.2969	 14.2969	 -6.2196	  0.0000
     -4.5800	 14.3006	 14.3006	 -6.2196	  0.0000
     -4.5700	 14.3045	 14.3045	 -6.2196	  0.0000
     -4.5600	 14.3085	 14.3085	 -6.2196	  0.0000
     -4.5500	 14.3128	 14.3128	 -6.2196	  0.0000
     -4.5400	 14.3173	 14.3172	 -6.2196	  0.0000
     -4.5300	 14.3219	 14.3219	 -6.2196	  0.0000
     -4.5200	 14.3268	 14.3268	 -6.2196	  0.0000
     -4.5100	 14.3319	 14.3319	 -6.2196	  0.0000
     -4.5000	 14.3373	 14.3373	 -6.2196	  0.0000
     -4.4900	 14.3430	 14.3430	 -6.2196	  0.0000
     -4.4800	 14.3490	 14.3490	 -6.2196	  0.0000
     -4.4700	 14.3553	 14.3553	 -6.2196	  0.0000
     -4.4600	 14.3619	 14.3620	 -6.2196	  0.0000
     -4.4500	 14.3690	 14.3690	 -6.2196	  0.0000
     -4.4400	 14.3765	 14.3765	 -6.2196	  0.0000
     -4.4300	 14.3844	 14.3844	 -6.2196	  0.0000
     -4.4200	 14.3929	 14.3929	 -6.2196	  0.0000
     -4.4100	 14.4019	 14.4019	 -6.2196	  0.0000
     -4.4000	 14.4115	 14.4115	 -6.2196	  0.0000
     -4.3900	 14.4218	 14.4218	 -6.2196	  0.0000
     -4.3800	 14.4328	 14.4328	 -6.2196	  0.0000
     -4.3700	 14.4446	 14.4446	 -6.2196	  0.0000
     -4.3600	 14.4574	 14.4574	 -6.2196	  0.0000
     -4.3500	 14.4711	 14.4711	 -6.2196	  0.0000
     -4.3400	 14.4860	 14.4860	 -6.2196	  0.0000
     -4.3300	 14.5020	 14.5020	 -6.2196	  0.0000
     -4.3200	 14.5193	 14.5193	 -6.2196	  0.0000
     -4.3100	 14.5381	 14.5381	 -6.2196	  0.0000
     -4.3000	 14.5583	 14.5583	 -6.2196	  0.0000
     -4.2900	 14.5800	 14.5800	 -6.2196	  0.0000
     -4.2800	 14.6034	 14.6034	 -6.2196	  0.0000
     -4.2700	 14.6283	 14.6283	 -6.2196	  0.0000
     -4.2600	 14.6546	 14.6546	 -6.2196	  0.0000
     -4.2500	 14.6821	 14.6821	 -6.2196	  0.0000
     -4.2400	 14.7103	 14.7103	 -6.2196	  0.0000
     -4.2300	 14.7387	 14.7387	 -6.2196	  0.0000
     -4.2200	 14.7665	 14.7665	 -6.2196	  0.0000
     -4.2100	 14.7926	 14.7926	 -6.2196	  0.0000
     -4.2000	 14.8158	 14.8158	 -6.2196	  0.0000
     -4.1900	 14.8349	 14.8349	 -6.2196	  0.0000
     -4.1800	 14.8488	 14.8488	 -6.2196	  0.0000
     -4.1700	 14.8568	 14.8568	 -6.2196	  0.0000
     -4.1600	 14.8583	 14.8583	 -6.2196	  0.0000
     -4.1500	 14.8537	 14.8537	 -6.2196	  0.0000
     -4.1400	 14.8435	 14.8435	 -6.2196	  0.0000
     -4.1300	 14.8287	 14.8287	 -6.2196	  0.0000
     -4.1200	 14.8107	 14.8107	 -6.2196	  0.0000
     -4.1100	 14.7905	 14.7905	 -6.2196	  0.0000
     -4.1000	 14.7695	 14.7695	 -6.2196	  0.0000
     -4.0900	 14.7485	 14.7485	 -6.2196	  0.0000
     -4.0800	 14.7282	 14.7282	 -6.2196	  0.0000
     -4.0700	 14.7091	 14.7091	 -6.2196	  0.0000
     -4.0600	 14.6915	 14.6915	 -6.2196	  0.0000
     -4.0500	 14.6756	 14.6756	 -6.2196	  0.0000
     -4.0400	 14.6614	 14.6614	 -6.2196	  0.0000
     -4.0300	 14.6490	 14.6490	 -6.2196	  0.0000
     -4.0200	 14.6382	 14.6382	 -6.2196	  0.0000
     -4.0100	 14.6289	 14.6289	 -6.2196	  0.0000
     -4.0000	 14.6210	 14.6211	 -6.2196	  0.0000
     -3.9900	 14.6145	 14.6145	 -6.2196	  0.0000
     -3.9800	 14.6092	 14.6092	 -6.2196	  0.0000
     -3.9700	 14.6049	 14.6049	 -6.2196	  0.0000
     -3.9600	 14.6017	 14.6017	 -6.2196	  0.0000
     -3.9500	 14.5993	 14.5993	 -6.2196	  0.0000
     -3.9400	 14.5977	 14.5977	 -6.2196	  0.0000
     -3.9300	 14.5968	 14.5968	 -6.2196	  0.0000
     -3.9200	 14.5966	 14.5966	 -6.2196	  0.0000
     -3.9100	 14.5970	 14.5970	 -6.2196	  0.0000
     -3.9000	 14.5979	 14.5979	 -6.2196	  0.0000
     -3.8900	 14.5993	 14.5993	 -6.2196	  0.0000
     -3.8800	 14.6012	 14.6012	 -6.2196	  0.0000
     -3.8700	 14.6035	 14.6035	 -6.2196	  0.0000
     -3.8600	 14.6061	 14.6061	 -6.2196	  0.0000
     -3.8500	 14.6091	 14.6091	 -6.2196	  0.0000
     -3.8400	 14.6124	 14.6124	 -6.2196	  0.0000
     -3.8300	 14.6160	 14.6160	 -6.2196	  0.0000
     -3.8200	 14.6199	 14.6199	 -6.2196	  0.0000
     -3.8100	 14.6241	 14.6241	 -6.2196	  0.0000
     -3.8000	 14.6284	 14.6284	 -6.2196	  0.0000
     -3.7900	 14.6330	 14.6330	 -6.2196	  0.0000
     -3.7800	 14.6378	 14.6378	 -6.2196	  0.0000
     -3.7700	 14.6428	 14.6428	 -6.2196	  0.0000
     -3.7600	 14.6480	 14.6480	 -6.2196	  0.0000
     -3.7500	 14.6534	 14.6534	 -6.2196	  0.0000
     -3.7400	 14.6590	 14.6590	 -6.2196	  0.0000
     -3.7300	 14.6647	 14.6647	 -6.2196	  0.0000
     -3.7200	 14.6705	 14.6705	 -6.2196	  0.0000
     -3.7100	 14.6765	 14.6765	 -6.2196	  0.0000
     -3.7000	 14.6827	 14.6827	 -6.2196	  0.0000
     -3.6900	 14.6890	 14.6890	 -6.2196	  0.0000
     -3.6800	 14.6954	 14.6954	 -6.2196	  0.0000
     -3.6700	 14.7020	 14.7020	 -6.2196	  0.0000
     -3.6600	 14.7087	 14.7087	 -6.2196	  0.0000
     -3.6500	 14.7155	 14.7155	 -6.2196	  0.0000
     -3.6400	 14.7224	 14.7224	 -6.2196	  0.0000
     -3.6300	 14.7295	 14.7295	 -6.2196	  0.0000
     -3.6200	 14.7367	 14.7367	 -6.2196	  0.0000
     -3.6100	 14.7439	 14.7439	 -6.2196	  0.0000
     -3.6000	 14.7513	 14.7513	 -6.2196	  0.0000
     -3.5900	 14.7588	 14.7588	 -6.2196	  0.0000
     -3.5800	 14.7664	 14.7665	 -6.2196	  0.0000
     -3.5700	 14.7742	 14.7742	 -6.2196	  0.0000
     -3.5600	 14.7820	 14.7820	 -6.2196	  0.0000
     -3.5500	 14.7899	 14.7899	 -6.2196	  0.0000
     -3.5400	 14.7980	 14.7980	 -6.2196	  0.0000
     -3.5300	 14.8061	 14.8061	 -6.2196	  0.0000
     -3.5200	 14.8144	 14.8144	 -6.2196	  0.0000
     -3.5100	 14.8227	 14.8227	 -6.2196	  0.0000
     -3.5000	 14.8312	 14.8312	 -6.2196	  0.0000
     -3.4900	 14.8397	 14.8397	 -6.2196	  0.0000
     -3.4800	 14.8484	 14.8484	 -6.2196	  0.0000
     -3.4700	 14.8572	 14.8572	 -6.2196	  0.0000
     -3.4600	 14.8660	 14.8660	 -6.2196	  0.0000
     -3.4500	 14.8750	 14.8750	 -6.2196	  0.0000
     -3.4400	 14.8841	 14.8841	 -6.2196	  0.0000
     -3.4300	 14.8932	 14.8932	 -6.2196	  0.0000
     -3.4200	 14.9025	 14.9025	 -6.2196	  0.0000
     -3.4100	 14.9119	 14.9119	 -6.2196	  0.0000
     -3.4000	 14.9214	 14.9214	 -6.2196	  0.0000
     -3.3900	 14.9309	 14.9309	 -6.2196	  0.0000
     -3.3800	 14.9406	 14.9406	 -6.2196	  0.0000
     -3.3700	 14.9504	 14.9504	 -6.2196	  0.0000
     -3.3600	 14.9603	 14.9603	 -6.2196	  0.0000
     -3.3500	 14.9703	 14.9703	 -6.2196	  0.0000
     -3.3400	 14.9804	 14.9804	 -6.2196	  0.0000
     -3.3300	 14.9906	 14.9906	 -6.2196	  0.0000
     -3.3200	 15.0009	 15.0009	 -6.2196	  0.0000
     -3.3100	 15.0114	 15.0114	 -6.2196	  0.0000
     -3.3000	 15.0219	 15.0219	 -6.2196	  0.0000
     -3.2900	 15.0325	 15.0325	 -6.2196	  0.0000
     -3.2800	 15.0433	 15.0433	 -6.2196	  0.0000
     -3.2700	 15.0541	 15.0542	 -6.2196	  0.0000
     -3.2600	 15.0651	 15.0651	 -6.2196	  0.0000
     -3.2500	 15.0762	 15.0762	 -6.2196	  0.0000
     -3.2400	 15.0874	 15.0874	 -6.2196	  0.0000
     -3.2300	 15.0987	 15.0987	 -6.2196	  0.0000
     -3.2200	 15.1102	 15.1102	 -6.2196	  0.0000
     -3.2100	 15.1217	 15.1217	 -6.2196	  0.0000
     -3.2000	 15.1334	 15.1334	 -6.2196	  0.0000
     -3.1900	 15.1452	 15.1452	 -6.2196	  0.0000
     -3.1800	 15.1571	 15.1571	 -6.2196	  0.0000
     -3.1700	 15.1691	 15.1691	 -6.2196	  0.0000
     -3.1600	 15.1812	 15.1812	 -6.2196	  0.0000
     -3.1500	 15.1935	 15.1935	 -6.2196	  0.0000
     -3.1400	 15.2059	 15.2059	 -6.2196	  0.0000
     -3.1300	 15.2184	 15.2184	 -6.2196	  0.0000
     -3.1200	 15.2310	 15.2310	 -6.2196	  0.0000
     -3.1100	 15.2438	 15.2438	 -6.2196	  0.0000
     -3.1000	 15.2567	 15.2567	 -6.2196	  0.0000
     -3.0900	 15.2697	 15.2698	 -6.2196	  0.0000
     -3.0800	 15.2829	 15.2829	 -6.2196	  0.0000
     -3.0700	 15.2962	 15.2962	 -6.2196	  0.0000
     -3.0600	 15.3096	 15.3096	 -6.2196	  0.0000
     -3.0500	 15.3232	 15.3232	 -6.2196	  0.0000
     -3.0400	 15.3369	 15.3369	 -6.2196	  0.0000
     -3.0300	 15.3508	 15.3508	 -6.2196	  0.0000
     -3.0200	 15.3648	 15.3648	 -6.2196	  0.0000
     -3.0100	 15.3789	 15.3789	 -6.2196	  0.0000
     -3.0000	 15.3932	 15.3932	 -6.2196	  0.0000
     -2.9900	 15.4076	 15.4076	 -6.2196	  0.0000
     -2.9800	 15.4222	 15.4222	 -6.2196	  0.0000
     -2.9700	 15.4369	 15.4369	 -6.2196	  0.0000
     -2.9600	 15.4518	 15.4518	 -6.2196	  0.0000
     -2.9500	 15.4668	 15.4668	 -6.2196	  0.0000
     -2.9400	 15.4820	 15.4820	 -6.2196	  0.0000
     -2.9300	 15.4973	 15.4973	 -6.2196	  0.0000
     -2.9200	 15.5128	 15.5128	 -6.2196	  0.0000
     -2.9100	 15.5285	 15.5285	 -6.2196	  0.0000
     -2.9000	 15.5443	 15.5443	 -6.2196	  0.0000
     -2.8900	 15.5603	 15.5603	 -6.2196	  0.0000
     -2.8800	 15.5765	 15.5765	 -6.2196	  0.0000
     -2.8700	 15.5928	 15.5928	 -6.2196	  0.0000
     -2.8600	 15.6093	 15.6093	 -6.2196	  0.0000
     -2.8500	 15.6260	 15.6260	 -6.2196	  0.0000
     -2.8400	 15.6428	 15.6429	 -6.2196	  0.0000
     -2.8300	 15.6599	 15.6599	 -6.2196	  0.0000
     -2.8200	 15.6771	 15.6771	 -6.2196	  0.0000
     -2.8100	 15.6945	 15.6945	 -6.2196	  0.0000
     -2.8000	 15.7121	 15.7121	 -6.2196	  0.0000
     -2.7900	 15.7298	 15.7299	 -6.2196	  0.0000
     -2.7800	 15.7478	 15.7478	 -6.2196	  0.0000
     -2.7700	 15.7660	 15.7660	 -6.2196	  0.0000
     -2.7600	 15.7843	 15.7843	 -6.2196	  0.0000
     -2.7500	 15.8029	 15.8029	 -6.2196	  0.0000
     -2.7400	 15.8216	 15.8216	 -6.2196	  0.0000
     -2.7300	 15.8406	 15.8406	 -6.2196	  0.0000
     -2.7200	 15.8598	 15.8598	 -6.2196	  0.0000
     -2.7100	 15.8791	 15.8791	 -6.2196	  0.0000
     -2.7000	 15.8987	 15.8987	 -6.2196	  0.0000
     -2.6900	 15.9185	 15.9185	 -6.2196	  0.0000
     -2.6800	 15.9385	 15.9385	 -6.2196	  0.0000
     -2.6700	 15.9588	 15.9588	 -6.2196	  0.0000
     -2.6600	 15.9792	 15.9792	 -6.2196	  0.0000
     -2.6500	 15.9999	 15.9999	 -6.2196	  0.0000
     -2.6400	 16.0208	 16.0208	 -6.2196	  0.0000
     -2.6300	 16.0420	 16.0420	 -6.2196	  0.0000
     -2.6200	 16.0634	 16.0634	 -6.2196	  0.0000
     -2.6100	 16.0850	 16.0850	 -6.2196	  0.0000
     -2.6000	 16.1068	 16.1068	 -6.2196	  0.0000
     -2.5900	 16.1289	 16.1289	 -6.2196	  0.0000
     -2.5800	 16.1513	 16.1513	 -6.2196	  0.0000
     -2.5700	 16.1739	 16.1739	 -6.2196	  0.0000
     -2.5600	 16.1967	 16.1967	 -6.2196	  0.0000
     -2.5500	 16.2198	 16.2198	 -6.2196	  0.0000
     -2.5400	 16.2432	 16.2432	 -6.2196	  0.0000
     -2.5300	 16.2668	 16.2668	 -6.2196	  0.0000
     -2.5200	 16.2907	 16.2907	 -6.2196	  0.0000
     -2.5100	 16.3148	 16.3148	 -6.2196	  0.0000
     -2.5000	 16.3392	 16.3392	 -6.2196	  0.0000
     -2.4900	 16.3639	 16.3639	 -6.2196	  0.0000
     -2.4800	 16.3888	 16.3888	 -6.2196	  0.0000
     -2.4700	 16.4140	 16.4140	 -6.2196	  0.0000
     -2.4600	 16.4395	 16.4395	 -6.2196	  0.0000
     -2.4500	 16.4653	 16.4653	 -6.2196	  0.0000
     -2.4400	 16.4913	 16.4913	 -6.2196	  0.0000
     -2.4300	 16.5176	 16.5176	 -6.2196	  0.0000
     -2.4200	 16.5441	 16.5441	 -6.2196	  0.0000
     -2.4100	 16.5710	 16.5710	 -6.2196	  0.0000
     -2.4000	 16.5981	 16.5981	 -6.2196	  0.0000
     -2.3900	 16.6255	 16.6255	 -6.2196	  0.0000
     -2.3800	 16.6532	 16.6532	 -6.2196	  0.0000
     -2.3700	 16.6811	 16.6811	 -6.2196	  0.0000
     -2.3600	 16.7093	 16.7093	 -6.2196	  0.0000
     -2.3500	 16.7377	 16.7377	 -6.2196	  0.0000
     -2.3400	 16.7664	 16.7664	 -6.2196	  0.0000
     -2.3300	 16.7954	 16.7954	 -6.2196	  0.0000
     -2.3200	 16.8246	 16.8246	 -6.2196	  0.0000
     -2.3100	 16.8540	 16.8540	 -6.2196	  0.0000
     -2.3000	 16.8836	 16.8836	 -6.2196	  0.0000
     -2.2900	 16.9135	 16.9135	 -6.2196	  0.0000
     -2.2800	 16.9436	 16.9436	 -6.2196	  0.0000
     -2.2700	 16.9738	 16.9738	 -6.2196	  0.0000
     -2.2600	 17.0043	 17.0043	 -6.2196	  0.0000
     -2.2500	 17.0349	 17.0349	 -6.2196	  0.0000
     -2.2400	 17.0656	 17.0656	 -6.2196	  0.0000
     -2.2300	 17.0965	 17.0965	 -6.2196	  0.0000
     -2.2200	 17.1274	 17.1274	 -6.2196	  0.0000
     -2.2100	 17.1584	 17.1584	 -6.2196	  0.0000
     -2.2000	 17.1894	 17.1895	 -6.2196	  0.0000
     -2.1900	 17.2205	 17.2205	 -6.2196	  0.0000
     -2.1800	 17.2515	 17.2515	 -6.2196	  0.0000
     -2.1700	 17.2825	 17.2825	 -6.2196	  0.0000
     -2.1600	 17.3133	 17.3133	 -6.2196	  0.0000
     -2.1500	 17.3440	 17.3440	 -6.2196	  0.0000
     -2.1400	 17.3745	 17.3745	 -6.2196	  0.0000
     -2.1300	 17.4047	 17.4047	 -6.2196	  0.0000
     -2.1200	 17.4346	 17.4346	 -6.2196	  0.0000
     -2.1100	 17.4641	 17.4641	 -6.2196	  0.0000
     -2.1000	 17.4932	 17.4932	 -6.2196	  0.0000
     -2.0900	 17.5218	 17.5218	 -6.2196	  0.0000
     -2.0800	 17.5497	 17.5497	 -6.2196	  0.0000
     -2.0700	 17.5770	 17.5770	 -6.2196	  0.0000
     -2.0600	 17.6036	 17.6036	 -6.2196	  0.0000
     -2.0500	 17.6293	 17.6293	 -6.2196	  0.0000
     -2.0400	 17.6541	 17.6541	 -6.2196	  0.0000
     -2.0300	 17.6778	 17.6778	 -6.2196	  0.0000
     -2.0200	 17.7005	 17.7005	 -6.2196	  0.0000
     -2.0100	 17.7220	 17.7220	 -6.2196	  0.0000
     -2.0000	 17.7421	 17.7421	 -6.2196	  0.0000
     -1.9900	 17.7609	 17.7609	 -6.2196	  0.0000
     -1.9800	 17.7782	 17.7783	 -6.2196	  0.0000
     -1.9700	 17.7940	 17.7940	 -6.2196	  0.0000
     -1.9600	 17.8081	 17.8081	 -6.2196	  0.0000
     -1.9500	 17.8205	 17.8205	 -6.2196	  0.0000
     -1.9400	 17.8312	 17.8312	 -6.2196	  0.0000
     -1.9300	 17.8400	 17.8400	 -6.2196	  0.0000
     -1.9200	 17.8468	 17.8469	 -6.2196	  0.0000
     -1.9100	 17.8518	 17.8518	 -6.2196	  0.0000
     -1.9000	 17.8548	 17.8548	 -6.2196	  0.0000
     -1.8900	 17.8559	 17.8559	 -6.2196	  0.0000
     -1.8800	 17.8549	 17.8549	 -6.2196	  0.0000
     -1.8700	 17.8520	 17.8520	 -6.2196	  0.0000
     -1.8600	 17.8472	 17.8472	 -6.2196	  0.0000
     -1.8500	 17.8404	 17.8404	 -6.2196	  0.0000
     -1.8400	 17.8317	 17.8318	 -6.2196	  0.0000
     -1.8300	 17.8213	 17.8213	 -6.2196	  0.0000
     -1.8200	 17.8090	 17.8090	 -6.2196	  0.0000
     -1.8100	 17.7951	 17.7951	 -6.2196	  0.0000
     -1.8000	 17.7795	 17.7795	 -6.2196	  0.0000
     -1.7900	 17.7624	 17.7625	 -6.2196	  0.0000
     -1.7800	 17.7439	 17.7439	 -6.2196	  0.0000
     -1.7700	 17.7240	 17.7240	 -6.2196	  0.0000
     -1.7600	 17.7029	 17.7029	 -6.2196	  0.0000
     -1.7500	 17.6805	 17.6806	 -6.2196	  0.0000
     -1.7400	 17.6571	 17.6572	 -6.2196	  0.0000
     -1.7300	 17.6327	 17.6328	 -6.2196	  0.0000
     -1.7200	 17.6075	 17.6075	 -6.2196	  0.0000
     -1.7100	 17.5814	 17.5814	 -6.2196	  0.0000
     -1.7000	 17.5546	 17.5546	 -6.2196	  0.0000
     -1.6900	 17.5271	 17.5271	 -6.2196	  0.0000
     -1.6800	 17.4991	 17.4991	 -6.2196	  0.0000
     -1.6700	 17.4706	 17.4706	 -6.2196	  0.0000
     -1.6600	 17.4417	 17.4417	 -6.2196	  0.0000
     -1.6500	 17.4124	 17.4124	 -6.2196	  0.0000
     -1.6400	 17.3829	 17.3829	 -6.2196	  0.0000
     -1.6300	 17.3531	 17.3531	 -6.2196	  0.0000
     -1.6200	 17.3232	 17.3232	 -6.2196	  0.0000
     -1.6100	 17.2931	 17.2931	 -6.2196	  0.0000
     -1.6000	 17.2629	 17.2629	 -6.2196	  0.0000
     -1.5900	 17.2327	 17.2327	 -6.2196	  0.0000
     -1.5800	 17.2025	 17.2025	 -6.2196	  0.0000
     -1.5700	 17.1724	 17.1724	 -6.2196	  0.0000
     -1.5600	 17.1423	 17.1423	 -6.2196	  0.0000
     -1.5500	 17.1123	 17.1123	 -6.2196	  0.0000
     -1.5400	 17.0824	 17.0824	 -6.2196	  0.0000
     -1.5300	 17.0527	 17.0527	 -6.2196	  0.0000
     -1.5200	 17.0232	 17.0232	 -6.2196	  0.0000
     -1.5100	 16.9938	 16.9938	 -6.2196	  0.0000
     -1.5000	 16.9647	 16.9647	 -6.2196	  0.0000
     -1.4900	 16.9358	 16.9358	 -6.2196	  0.0000
     -1.4800	 16.9071	 16.9071	 -6.2196	  0.0000
     -1.4700	 16.8787	 16.8787	 -6.2196	  0.0000
     -1.4600	 16.8505	 16.8505	 -6.2196	  0.0000
     -1.4500	 16.8227	 16.8227	 -6.2196	  0.0000
     -1.4400	 16.7950	 16.7951	 -6.2196	  0.0000
     -1.4300	 16.7677	 16.7677	 -6.2196	  0.0000
     -1.4200	 16.7407	 16.7407	 -6.2196	  0.0000
     -1.4100	 16.7140	 16.7140	 -6.2196	  0.0000
     -1.4000	 16.6876	 16.6876	 -6.2196	  0.0000
     -1.3900	 16.6615	 16.6615	 -6.2196	  0.0000
     -1.3800	 16.6357	 16.6357	 -6.2196	  0.0000
     -1.3700	 16.6103	 16.6103	 -6.2196	  0.0000
     -1.3600	 16.5851	 16.5852	 -6.2196	  0.0000
     -1.3500	 16.5603	 16.5603	 -6.2196	  0.0000
     -1.3400	 16.5359	 16.5359	 -6.2196	  0.0000
     -1.3300	 16.5117	 16.5117	 -6.2196	  0.0000
     -1.3200	 16.4879	 16.4879	 -6.2196	  0.0000
     -1.3100	 16.4644	 16.4644	 -6.2196	  0.0000
     -1.3000	 16.4412	 16.4412	 -6.2196	  0.0000
     -1.2900	 16.4183	 16.4183	 -6.2196	  0.0000
     -1.2800	 16.3958	 16.3958	 -6.2196	  0.0000
     -1.2700	 16.3736	 16.3736	 -6.2196	  0.0000
     -1.2600	 16.3518	 16.3518	 -6.2196	  0.0000
     -1.2500	 16.3302	 16.3302	 -6.2196	  0.0000
     -1.2400	 16.3090	 16.3090	 -6.2196	  0.0000
     -1.2300	 16.2882	 16.2882	 -6.2196	  0.0000
     -1.2200	 16.2676	 16.2676	 -6.2196	  0.0000
     -1.2100	 16.2474	 16.2474	 -6.2196	  0.0000
     -1.2000	 16.2275	 16.2275	 -6.2196	  0.0000
     -1.1900	 16.2079	 16.2079	 -6.2196	  0.0000
     -1.1800	 16.1887	 16.1887	 -6.2196	  0.0000
     -1.1700	 16.1697	 16.1697	 -6.2196	  0.0000
     -1.1600	 16.1511	 16.1511	 -6.2196	  0.0000
     -1.1500	 16.1329	 16.1329	 -6.2196	  0.0000
     -1.1400	 16.1149	 16.1149	 -6.2196	  0.0000
     -1.1300	 16.0973	 16.0973	 -6.2196	  0.0000
     -1.1200	 16.0800	 16.0800	 -6.2196	  0.0000
     -1.1100	 16.0630	 16.0630	 -6.2196	  0.0000
     -1.1000	 16.0463	 16.0463	 -6.2196	  0.0000
     -1.0900	 16.0300	 16.0300	 -6.2196	  0.0000
     -1.0800	 16.0139	 16.0139	 -6.2196	  0.0000
     -1.0700	 15.9983	 15.9982	 -6.2196	  0.0000
     -1.0600	 15.9829	 15.9829	 -6.2196	  0.0000
     -1.0500	 15.9678	 15.9678	 -6.2196	  0.0000
     -1.0400	 15.9531	 15.9531	 -6.2196	  0.0000
