
  1   1001     1.54056     0.00000     0.00000     0.00000     0.00000    0
     0     0     0
 2Theta	Yobs	Ycal	Yobs-Ycal	Backg	Posr	(hkl)	K
     -5.0000	 24.2083	 24.2083	 -6.0521	  0.0000
     -4.9900	 21.3220	 21.3219	 -6.0520	  0.0000
     -4.9800	 20.2424	 20.2423	 -6.0520	  0.0000
     -4.9700	 19.5643	 19.5642	 -6.0520	  0.0000
     -4.9600	 19.0710	 19.0710	 -6.0520	  0.0000
     -4.9500	 18.6864	 18.6863	 -6.0520	  0.0000
     -4.9400	 18.3740	 18.3740	 -6.0520	  0.0000
     -4.9300	 18.1136	 18.1135	 -6.0520	  0.0000
     -4.9200	 17.8924	 17.8924	 -6.0520	  0.0000
     -4.9100	 17.7021	 17.7020	 -6.0520	  0.0000
     -4.9000	 17.5367	 17.5366	 -6.0520	  0.0000
     -4.8900	 17.3918	 17.3917	 -6.0520	  0.0000
     -4.8800	 17.2640	 17.2640	 -6.0520	  0.0000
     -4.8700	 17.1509	 17.1508	 -6.0520	  0.0000
     -4.8600	 17.0502	 17.0502	 -6.0520	  0.0000
     -4.8500	 16.9603	 16.9603	 -6.0520	  0.0000
     -4.8400	 16.8798	 16.8798	 -6.0521	  0.0000
     -4.8300	 16.8075	 16.8075	 -6.0521	  0.0000
     -4.8200	 16.7425	 16.7425	 -6.0521	  0.0000
     -4.8100	 16.6838	 16.6838	 -6.0521	  0.0000
     -4.8000	 16.6309	 16.6308	 -6.0521	  0.0000
     -4.7900	 16.5829	 16.5829	 -6.0521	  0.0000
     -4.7800	 16.5395	 16.5395	 -6.0521	  0.0000
     -4.7700	 16.5002	 16.5001	 -6.0521	  0.0000
     -4.7600	 16.4644	 16.4644	 -6.0521	  0.0000
     -4.7500	 16.4320	 16.4320	 -6.0521	  0.0000
     -4.7400	 16.4025	 16.4025	 -6.0521	  0.0000
     -4.7300	 16.3757	 16.3757	 -6.0521	  0.0000
     -4.7200	 16.3514	 16.3513	 -6.0521	  0.0000
     -4.7100	 16.3292	 16.3292	 -6.0521	  0.0000
     -4.7000	 16.3091	 16.3091	 -6.0521	  0.0000
     -4.6900	 16.2909	 16.2909	 -6.0521	  0.0000
     -4.6800	 16.2743	 16.2743	 -6.0521	  0.0000
     -4.6700	 16.2594	 16.2594	 -6.0521	  0.0000
     -4.6600	 16.2458	 16.2458	 -6.0521	  0.0000
     -4.6500	 16.2337	 16.2336	 -6.0521	  0.0000
     -4.6400	 16.2227	 16.2227	 -6.0521	  0.0000
     -4.6300	 16.2129	 16.2129	 -6.0521	  0.0000
     -4.6200	 16.2041	 16.2041	 -6.0521	  0.0000
     -4.6100	 16.1964	 16.1964	 -6.0521	  0.0000
     -4.6000	 16.1896	 16.1895	 -6.0521	  0.0000
     -4.5900	 16.1836	 16.1836	 -6.0521	  0.0000
     -4.5800	 16.1785	 16.1784	 -6.0521	  0.0000
     -4.5700	 16.1741	 16.1741	 -6.0521	  0.0000
     -4.5600	 16.1704	 16.1704	 -6.0521	  0.0000
     -4.5500	 16.1675	 16.1674	 -6.0521	  0.0000
     -4.5400	 16.1651	 16.1651	 -6.0521	  0.0000
     -4.5300	 16.1634	 16.1634	 -6.0521	  0.0000
     -4.5200	 16.1623	 16.1623	 -6.0521	  0.0000
     -4.5100	 16.1617	 16.1617	 -6.0521	  0.0000
     -4.5000	 16.1616	 16.1616	 -6.0521	  0.0000
     -4.4900	 16.1621	 16.1621	 -6.0521	  0.0000
     -4.4800	 16.1630	 16.1630	 -6.0521	  0.0000
     -4.4700	 16.1644	 16.1644	 -6.0521	  0.0000
     -4.4600	 16.1662	 16.1662	 -6.0521	  0.0000
     -4.4500	 16.1685	 16.1685	 -6.0521	  0.0000
     -4.4400	 16.1712	 16.1711	 -6.0521	  0.0000
     -4.4300	 16.1742	 16.1742	 -6.0521	  0.0000
     -4.4200	 16.1777	 16.1777	 -6.0521	  0.0000
     -4.4100	 16.1815	 16.1815	 -6.0521	  0.0000
     -4.4000	 16.1857	 16.1857	 -6.0521	  0.0000
     -4.3900	 16.1902	 16.1902	 -6.0521	  0.0000
     -4.3800	 16.1951	 16.1951	 -6.0521	  0.0000
     -4.3700	 16.2003	 16.2003	 -6.0521	  0.0000
     -4.3600	 16.2059	 16.2059	 -6.0521	  0.0000
     -4.3500	 16.2117	 16.2117	 -6.0521	  0.0000
     -4.3400	 16.2179	 16.2179	 -6.0521	  0.0000
     -4.3300	 16.2244	 16.2244	 -6.0521	  0.0000
     -4.3200	 16.2312	 16.2312	 -6.0521	  0.0000
     -4.3100	 16.2383	 16.2383	 -6.0521	  0.0000
     -4.3000	 16.2456	 16.2456	 -6.0521	  0.0000
     -4.2900	 16.2533	 16.2533	 -6.0521	  0.0000
     -4.2800	 16.2612	 16.2612	 -6.0521	  0.0000
     -4.2700	 16.2694	 16.2695	 -6.0521	  0.0000
     -4.2600	 16.2780	 16.2780	 -6.0521	  0.0000
     -4.2500	 16.2867	 16.2867	 -6.0521	  0.0000
     -4.2400	 16.2958	 16.2958	 -6.0521	  0.0000
     -4.2300	 16.3051	 16.3051	 -6.0521	  0.0000
     -4.2200	 16.3146	 16.3146	 -6.0521	  0.0000
     -4.2100	 16.3245	 16.3245	 -6.0521	  0.0000
     -4.2000	 16.3346	 16.3346	 -6.0521	  0.0000
     -4.1900	 16.3449	 16.3449	 -6.0521	  0.0000
     -4.1800	 16.3556	 16.3556	 -6.0521	  0.0000
     -4.1700	 16.3664	 16.3664	 -6.0521	  0.0000
     -4.1600	 16.3776	 16.3776	 -6.0521	  0.0000
     -4.1500	 16.3890	 16.3890	 -6.0521	  0.0000
     -4.1400	 16.4006	 16.4006	 -6.0521	  0.0000
     -4.1300	 16.4125	 16.4125	 -6.0521	  0.0000
     -4.1200	 16.4247	 16.4247	 -6.0521	  0.0000
     -4.1100	 16.4371	 16.4371	 -6.0521	  0.0000
     -4.1000	 16.4498	 16.4498	 -6.0521	  0.0000
     -4.0900	 16.4627	 16.4627	 -6.0521	  0.0000
     -4.0800	 16.4759	 16.4759	 -6.0521	  0.0000
     -4.0700	 16.4893	 16.4893	 -6.0521	  0.0000
     -4.0600	 16.5030	 16.5030	 -6.0521	  0.0000
     -4.0500	 16.5170	 16.5170	 -6.0521	  0.0000
     -4.0400	 16.5312	 16.5312	 -6.0521	  0.0000
     -4.0300	 16.5457	 16.5457	 -6.0521	  0.0000
     -4.0200	 16.5604	 16.5604	 -6.0521	  0.0000
     -4.0100	 16.5754	 16.5754	 -6.0521	  0.0000
     -4.0000	 16.5907	 16.5907	 -6.0521	  0.0000
     -3.9900	 16.6062	 16.6062	 -6.0521	  0.0000
     -3.9800	 16.6220	 16.6220	 -6.0521	  0.0000
     -3.9700	 16.6380	 16.6380	 -6.0521	  0.0000
     -3.9600	 16.6543	 16.6543	 -6.0521	  0.0000
     -3.9500	 16.6709	 16.6709	 -6.0521	  0.0000
     -3.9400	 16.6878	 16.6878	 -6.0521	  0.0000
     -3.9300	 16.7049	 16.7049	 -6.0521	  0.0000
     -3.9200	 16.7223	 16.7223	 -6.0521	  0.0000
     -3.9100	 16.7400	 16.7400	 -6.0521	  0.0000
     -3.9000	 16.7579	 16.7579	 -6.0521	  0.0000
     -3.8900	 16.7761	 16.7762	 -6.0521	  0.0000
     -3.8800	 16.7947	 16.7947	 -6.0521	  0.0000
     -3.8700	 16.8134	 16.8135	 -6.0521	  0.0000
     -3.8600	 16.8325	 16.8325	 -6.0521	  0.0000
     -3.8500	 16.8519	 16.8519	 -6.0521	  0.0000
     -3.8400	 16.8715	 16.8715	 -6.0521	  0.0000
     -3.8300	 16.8915	 16.8915	 -6.0521	  0.0000
     -3.8200	 16.9117	 16.9117	 -6.0521	  0.0000
     -3.8100	 16.9322	 16.9322	 -6.0521	  0.0000
     -3.8000	 16.9530	 16.9530	 -6.0521	  0.0000
     -3.7900	 16.9742	 16.9742	 -6.0521	  0.0000
     -3.7800	 16.9956	 16.9956	 -6.0521	  0.0000
     -3.7700	 17.0173	 17.0173	 -6.0521	  0.0000
     -3.7600	 17.0393	 17.0393	 -6.0521	  0.0000
     -3.7500	 17.0616	 17.0616	 -6.0521	  0.0000
     -3.7400	 17.0842	 17.0843	 -6.0521	  0.0000
     -3.7300	 17.1072	 17.1072	 -6.0521	  0.0000
     -3.7200	 17.1304	 17.1304	 -6.0521	  0.0000
     -3.7100	 17.1540	 17.1540	 -6.0521	  0.0000
     -3.7000	 17.1778	 17.1778	 -6.0521	  0.0000
     -3.6900	 17.2020	 17.2020	 -6.0521	  0.0000
     -3.6800	 17.2265	 17.2265	 -6.0521	  0.0000
     -3.6700	 17.2513	 17.2513	 -6.0521	  0.0000
     -3.6600	 17.2764	 17.2764	 -6.0521	  0.0000
     -3.6500	 17.3018	 17.3018	 -6.0521	  0.0000
     -3.6400	 17.3275	 17.3275	 -6.0521	  0.0000
     -3.6300	 17.3535	 17.3535	 -6.0521	  0.0000
     -3.6200	 17.3799	 17.3799	 -6.0521	  0.0000
     -3.6100	 17.4065	 17.4065	 -6.0521	  0.0000
     -3.6000	 17.4334	 17.4334	 -6.0521	  0.0000
     -3.5900	 17.4607	 17.4607	 -6.0521	  0.0000
     -3.5800	 17.4882	 17.4882	 -6.0521	  0.0000
     -3.5700	 17.5160	 17.5160	 -6.0521	  0.0000
     -3.5600	 17.5441	 17.5441	 -6.0521	  0.0000
     -3.5500	 17.5725	 17.5725	 -6.0521	  0.0000
     -3.5400	 17.6011	 17.6011	 -6.0521	  0.0000
     -3.5300	 17.6300	 17.6300	 -6.0521	  0.0000
     -3.5200	 17.6591	 17.6591	 -6.0521	  0.0000
     -3.5100	 17.6885	 17.6885	 -6.0521	  0.0000
     -3.5000	 17.7181	 17.7181	 -6.0521	  0.0000
     -3.4900	 17.7479	 17.7479	 -6.0521	  0.0000
     -3.4800	 17.7779	 17.7779	 -6.0521	  0.0000
     -3.4700	 17.8080	 17.8080	 -6.0521	  0.0000
     -3.4600	 17.8383	 17.8383	 -6.0521	  0.0000
     -3.4500	 17.8687	 17.8688	 -6.0521	  0.0000
     -3.4400	 17.8993	 17.8993	 -6.0521	  0.0000
     -3.4300	 17.9298	 17.9299	 -6.0521	  0.0000
     -3.4200	 17.9605	 17.9605	 -6.0521	  0.0000
     -3.4100	 17.9911	 17.9911	 -6.0521	  0.0000
     -3.4000	 18.0217	 18.0217	 -6.0521	  0.0000
     -3.3900	 18.0521	 18.0522	 -6.0521	  0.0000
     -3.3800	 18.0825	 18.0825	 -6.0521	  0.0000
     -3.3700	 18.1127	 18.1127	 -6.0521	  0.0000
     -3.3600	 18.1427	 18.1427	 -6.0521	  0.0000
     -3.3500	 18.1723	 18.1723	 -6.0521	  0.0000
     -3.3400	 18.2017	 18.2017	 -6.0521	  0.0000
     -3.3300	 18.2306	 18.2306	 -6.0521	  0.0000
     -3.3200	 18.2590	 18.2590	 -6.0521	  0.0000
     -3.3100	 18.2868	 18.2869	 -6.0521	  0.0000
     -3.3000	 18.3141	 18.3141	 -6.0521	  0.0000
     -3.2900	 18.3406	 18.3406	 -6.0521	  0.0000
     -3.2800	 18.3663	 18.3663	 -6.0521	  0.0000
     -3.2700	 18.3911	 18.3911	 -6.0521	  0.0000
     -3.2600	 18.4149	 18.4149	 -6.0521	  0.0000
     -3.2500	 18.4377	 18.4377	 -6.0521	  0.0000
     -3.2400	 18.4592	 18.4592	 -6.0521	  0.0000
     -3.2300	 18.4795	 18.4796	 -6.0521	  0.0000
     -3.2200	 18.4985	 18.4985	 -6.0521	  0.0000
     -3.2100	 18.5160	 18.5160	 -6.0521	  0.0000
     -3.2000	 18.5320	 18.5320	 -6.0521	  0.0000
     -3.1900	 18.5464	 18.5464	 -6.0521	  0.0000
     -3.1800	 18.5591	 18.5591	 -6.0521	  0.0000
     -3.1700	 18.5700	 18.5700	 -6.0521	  0.0000
     -3.1600	 18.5791	 18.5791	 -6.0521	  0.0000
     -3.1500	 18.5863	 18.5863	 -6.0521	  0.0000
     -3.1400	 18.5916	 18.5917	 -6.0521	  0.0000
     -3.1300	 18.5950	 18.5950	 -6.0521	  0.0000
     -3.1200	 18.5964	 18.5964	 -6.0521	  0.0000
     -3.1100	 18.5958	 18.5958	 -6.0521	  0.0000
     -3.1000	 18.5933	 18.5933	 -6.0521	  0.0000
     -3.0900	 18.5888	 18.5888	 -6.0521	  0.0000
     -3.0800	 18.5824	 18.5824	 -6.0521	  0.0000
     -3.0700	 18.5741	 18.5741	 -6.0521	  0.0000
     -3.0600	 18.5639	 18.5639	 -6.0521	  0.0000
     -3.0500	 18.5520	 18.5520	 -6.0521	  0.0000
     -3.0400	 18.5384	 18.5384	 -6.0521	  0.0000
     -3.0300	 18.5231	 18.5232	 -6.0521	  0.0000
     -3.0200	 18.5063	 18.5064	 -6.0521	  0.0000
     -3.0100	 18.4881	 18.4881	 -6.0521	  0.0000
     -3.0000	 18.4684	 18.4684	 -6.0521	  0.0000
     -2.9900	 18.4475	 18.4475	 -6.0521	  0.0000
     -2.9800	 18.4254	 18.4254	 -6.0521	  0.0000
     -2.9700	 18.4021	 18.4021	 -6.0521	  0.0000
     -2.9600	 18.3779	 18.3779	 -6.0521	  0.0000
     -2.9500	 18.3527	 18.3527	 -6.0521	  0.0000
     -2.9400	 18.3267	 18.3267	 -6.0521	  0.0000
     -2.9300	 18.3000	 18.3000	 -6.0521	  0.0000
     -2.9200	 18.2726	 18.2726	 -6.0521	  0.0000
     -2.9100	 18.2446	 18.2446	 -6.0521	  0.0000
     -2.9000	 18.2161	 18.2161	 -6.0521	  0.0000
     -2.8900	 18.1872	 18.1872	 -6.0521	  0.0000
     -2.8800	 18.1579	 18.1579	 -6.0521	  0.0000
     -2.8700	 18.1283	 18.1283	 -6.0521	  0.0000
     -2.8600	 18.0984	 18.0984	 -6.0521	  0.0000
     -2.8500	 18.0683	 18.0683	 -6.0521	  0.0000
     -2.8400	 18.0381	 18.0381	 -6.0521	  0.0000
     -2.8300	 18.0078	 18.0078	 -6.0521	  0.0000
     -2.8200	 17.9774	 17.9774	 -6.0521	  0.0000
     -2.8100	 17.9470	 17.9470	 -6.0521	  0.0000
     -2.8000	 17.9166	 17.9166	 -6.0521	  0.0000
     -2.7900	 17.8862	 17.8863	 -6.0521	  0.0000
     -2.7800	 17.8560	 17.8560	 -6.0521	  0.0000
     -2.7700	 17.8258	 17.8258	 -6.0521	  0.0000
     -2.7600	 17.7957	 17.7958	 -6.0521	  0.0000
     -2.7500	 17.7658	 17.7658	 -6.0521	  0.0000
     -2.7400	 17.7361	 17.7361	 -6.0521	  0.0000
     -2.7300	 17.7065	 17.7065	 -6.0521	  0.0000
     -2.7200	 17.6772	 17.6772	 -6.0521	  0.0000
     -2.7100	 17.6480	 17.6480	 -6.0521	  0.0000
     -2.7000	 17.6191	 17.6191	 -6.0521	  0.0000
     -2.6900	 17.5904	 17.5904	 -6.0521	  0.0000
     -2.6800	 17.5620	 17.5620	 -6.0521	  0.0000
     -2.6700	 17.5337	 17.5338	 -6.0521	  0.0000
     -2.6600	 17.5058	 17.5058	 -6.0521	  0.0000
     -2.6500	 17.4781	 17.4781	 -6.0521	  0.0000
     -2.6400	 17.4507	 17.4507	 -6.0521	  0.0000
     -2.6300	 17.4236	 17.4236	 -6.0521	  0.0000
     -2.6200	 17.3967	 17.3967	 -6.0521	  0.0000
     -2.6100	 17.3701	 17.3701	 -6.0521	  0.0000
     -2.6000	 17.3438	 17.3438	 -6.0521	  0.0000
     -2.5900	 17.3178	 17.3178	 -6.0521	  0.0000
     -2.5800	 17.2920	 17.2920	 -6.0521	  0.0000
     -2.5700	 17.2666	 17.2666	 -6.0521	  0.0000
     -2.5600	 17.2414	 17.2414	 -6.0521	  0.0000
     -2.5500	 17.2165	 17.2165	 -6.0521	  0.0000
     -2.5400	 17.1919	 17.1919	 -6.0521	  0.0000
     -2.5300	 17.1675	 17.1675	 -6.0521	  0.0000
     -2.5200	 17.1434	 17.1435	 -6.0521	  0.0000
     -2.5100	 17.1197	 17.1197	 -6.0521	  0.0000
     -2.5000	 17.0962	 17.0962	 -6.0521	  0.0000
     -2.4900	 17.0729	 17.0729	 -6.0521	  0.0000
     -2.4800	 17.0500	 17.0500	 -6.0521	  0.0000
     -2.4700	 17.0273	 17.0273	 -6.0521	  0.0000
     -2.4600	 17.0049	 17.0049	 -6.0521	  0.0000
     -2.4500	 16.9827	 16.9827	 -6.0521	  0.0000
     -2.4400	 16.9608	 16.9608	 -6.0521	  0.0000
     -2.4300	 16.9392	 16.9392	 -6.0521	  0.0000
     -2.4200	 16.9178	 16.9178	 -6.0521	  0.0000
     -2.4100	 16.8967	 16.8967	 -6.0521	  0.0000
     -2.4000	 16.8759	 16.8759	 -6.0521	  0.0000
     -2.3900	 16.8552	 16.8553	 -6.0521	  0.0000
     -2.3800	 16.8349	 16.8349	 -6.0521	  0.0000
     -2.3700	 16.8148	 16.8148	 -6.0521	  0.0000
     -2.3600	 16.7949	 16.7949	 -6.0521	  0.0000
     -2.3500	 16.7753	 16.7753	 -6.0521	  0.0000
     -2.3400	 16.7559	 16.7559	 -6.0521	  0.0000
     -2.3300	 16.7367	 16.7367	 -6.0521	  0.0000
     -2.3200	 16.7178	 16.7178	 -6.0521	  0.0000
     -2.3100	 16.6991	 16.6991	 -6.0521	  0.0000
     -2.3000	 16.6806	 16.6806	 -6.0521	  0.0000
     -2.2900	 16.6624	 16.6624	 -6.0521	  0.0000
     -2.2800	 16.6444	 16.6444	 -6.0521	  0.0000
     -2.2700	 16.6266	 16.6266	 -6.0521	  0.0000
     -2.2600	 16.6090	 16.6090	 -6.0521	  0.0000
     -2.2500	 16.5916	 16.5916	 -6.0521	  0.0000
     -2.2400	 16.5744	 16.5744	 -6.0521	  0.0000
     -2.2300	 16.5575	 16.5575	 -6.0521	  0.0000
     -2.2200	 16.5408	 16.5408	 -6.0521	  0.0000
     -2.2100	 16.5242	 16.5242	 -6.0521	  0.0000
     -2.2000	 16.5079	 16.5079	 -6.0521	  0.0000
     -2.1900	 16.4918	 16.4918	 -6.0521	  0.0000
     -2.1800	 16.4758	 16.4758	 -6.0521	  0.0000
     -2.1700	 16.4601	 16.4601	 -6.0521	  0.0000
     -2.1600	 16.4446	 16.4446	 -6.0521	  0.0000
     -2.1500	 16.4292	 16.4292	 -6.0521	  0.0000
     -2.1400	 16.4141	 16.4141	 -6.0521	  0.0000
     -2.1300	 16.3991	 16.3991	 -6.0521	  0.0000
     -2.1200	 16.3843	 16.3843	 -6.0521	  0.0000
     -2.1100	 16.3698	 16.3698	 -6.0521	  0.0000
     -2.1000	 16.3554	 16.3554	 -6.0521	  0.0000
     -2.0900	 16.3411	 16.3411	 -6.0521	  0.0000
     -2.0800	 16.3271	 16.3271	 -6.0521	  0.0000
     -2.0700	 16.3132	 16.3132	 -6.0521	  0.0000
     -2.0600	 16.2996	 16.2996	 -6.0521	  0.0000
     -2.0500	 16.2861	 16.2861	 -6.0521	  0.0000
     -2.0400	 16.2727	 16.2727	 -6.0521	  0.0000
     -2.0300	 16.2596	 16.2596	 -6.0521	  0.0000
     -2.0200	 16.2466	 16.2466	 -6.0521	  0.0000
     -2.0100	 16.2338	 16.2338	 -6.0521	  0.0000
     -2.0000	 16.2212	 16.2212	 -6.0521	  0.0000
     -1.9900	 16.2087	 16.2087	 -6.0521	  0.0000
     -1.9800	 16.1964	 16.1964	 -6.0521	  0.0000
     -1.9700	 16.1843	 16.1843	 -6.0521	  0.0000
     -1.9600	 16.1723	 16.1723	 -6.0521	  0.0000
     -1.9500	 16.1605	 16.1606	 -6.0521	  0.0000
     -1.9400	 16.1489	 16.1489	 -6.0521	  0.0000
     -1.9300	 16.1375	 16.1375	 -6.0521	  0.0000
     -1.9200	 16.1262	 16.1262	 -6.0521	  0.0000
     -1.9100	 16.1150	 16.1151	 -6.0521	  0.0000
     -1.9000	 16.1041	 16.1041	 -6.0521	  0.0000
     -1.8900	 16.0933	 16.0933	 -6.0521	  0.0000
     -1.8800	 16.0826	 16.0827	 -6.0521	  0.0000
     -1.8700	 16.0722	 16.0722	 -6.0521	  0.0000
     -1.8600	 16.0619	 16.0619	 -6.0521	  0.0000
     -1.8500	 16.0517	 16.0517	 -6.0521	  0.0000
     -1.8400	 16.0417	 16.0418	 -6.0521	  0.0000
     -1.8300	 16.0319	 16.0319	 -6.0521	  0.0000
     -1.8200	 16.0223	 16.0223	 -6.0521	  0.0000
     -1.8100	 16.0128	 16.0128	 -6.0521	  0.0000
     -1.8000	 16.0035	 16.0035	 -6.0521	  0.0000
     -1.7900	 15.9943	 15.9943	 -6.0521	  0.0000
     -1.7800	 15.9853	 15.9853	 -6.0521	  0.0000
     -1.7700	 15.9765	 15.9765	 -6.0521	  0.0000
     -1.7600	 15.9679	 15.9679	 -6.0521	  0.0000
     -1.7500	 15.9594	 15.9594	 -6.0521	  0.0000
     -1.7400	 15.9511	 15.9511	 -6.0521	  0.0000
     -1.7300	 15.9430	 15.9430	 -6.0521	  0.0000
     -1.7200	 15.9350	 15.9350	 -6.0521	  0.0000
     -1.7100	 15.9272	 15.9272	 -6.0521	  0.0000
     -1.7000	 15.9196	 15.9196	 -6.0521	  0.0000
     -1.6900	 15.9122	 15.9122	 -6.0521	  0.0000
     -1.6800	 15.9050	 15.9050	 -6.0521	  0.0000
     -1.6700	 15.8979	 15.8979	 -6.0521	  0.0000
     -1.6600	 15.8910	 15.8910	 -6.0521	  0.0000
     -1.6500	 15.8844	 15.8844	 -6.0521	  0.0000
     -1.6400	 15.8779	 15.8779	 -6.0521	  0.0000
     -1.6300	 15.8716	 15.8716	 -6.0521	  0.0000
     -1.6200	 15.8655	 15.8655	 -6.0521	  0.0000
     -1.6100	 15.8596	 15.8596	 -6.0521	  0.0000
     -1.6000	 15.8540	 15.8540	 -6.0521	  0.0000
     -1.5900	 15.8485	 15.8485	 -6.0521	  0.0000
     -1.5800	 15.8433	 15.8433	 -6.0521	  0.0000
     -1.5700	 15.8383	 15.8383	 -6.0521	  0.0000
     -1.5600	 15.8335	 15.8335	 -6.0521	  0.0000
     -1.5500	 15.8290	 15.8290	 -6.0521	  0.0000
     -1.5400	 15.8247	 15.8247	 -6.0521	  0.0000
     -1.5300	 15.8206	 15.8206	 -6.0521	  0.0000
     -1.5200	 15.8168	 15.8169	 -6.0521	  0.0000
     -1.5100	 15.8133	 15.8133	 -6.0521	  0.0000
     -1.5000	 15.8101	 15.8101	 -6.0521	  0.0000
     -1.4900	 15.8071	 15.8071	 -6.0521	  0.0000
     -1.4800	 15.8045	 15.8045	 -6.0521	  0.0000
     -1.4700	 15.8021	 15.8021	 -6.0521	  0.0000
     -1.4600	 15.8000	 15.8000	 -6.0521	  0.0000
     -1.4500	 15.7983	 15.7983	 -6.0521	  0.0000
     -1.4400	 15.7969	 15.7969	 -6.0521	  0.0000
     -1.4300	 15.7959	 15.7959	 -6.0521	  0.0000
     -1.4200	 15.7952	 15.7952	 -6.0521	  0.0000
     -1.4100	 15.7949	 15.7949	 -6.0521	  0.0000
     -1.4000	 15.7950	 15.7951	 -6.0521	  0.0000
     -1.3900	 15.7956	 15.7956	 -6.0521	  0.0000
     -1.3800	 15.7966	 15.7966	 -6.0521	  0.0000
     -1.3700	 15.7980	 15.7980	 -6.0521	  0.0000
     -1.3600	 15.7999	 15.7999	 -6.0521	  0.0000
     -1.3500	 15.8023	 15.8023	 -6.0521	  0.0000
     -1.3400	 15.8053	 15.8053	 -6.0521	  0.0000
     -1.3300	 15.8088	 15.8088	 -6.0521	  0.0000
     -1.3200	 15.8128	 15.8128	 -6.0521	  0.0000
     -1.3100	 15.8175	 15.8175	 -6.0521	  0.0000
     -1.3000	 15.8229	 15.8229	 -6.0521	  0.0000
     -1.2900	 15.8289	 15.8289	 -6.0521	  0.0000
     -1.2800	 15.8357	 15.8357	 -6.0521	  0.0000
     -1.2700	 15.8432	 15.8432	 -6.0521	  0.0000
     -1.2600	 15.8516	 15.8516	 -6.0521	  0.0000
     -1.2500	 15.8608	 15.8608	 -6.0521	  0.0000
     -1.2400	 15.8708	 15.8709	 -6.0521	  0.0000
     -1.2300	 15.8819	 15.8819	 -6.0521	  0.0000
     -1.2200	 15.8940	 15.8940	 -6.0521	  0.0000
     -1.2100	 15.9072	 15.9072	 -6.0521	  0.0000
     -1.2000	 15.9215	 15.9215	 -6.0521	  0.0000
     -1.1900	 15.9371	 15.9371	 -6.0521	  0.0000
     -1.1800	 15.9539	 15.9539	 -6.0521	  0.0000
     -1.1700	 15.9721	 15.9721	 -6.0521	  0.0000
     -1.1600	 15.9918	 15.9918	 -6.0521	  0.0000
     -1.1500	 16.0131	 16.0131	 -6.0521	  0.0000
     -1.1400	 16.0360	 16.0360	 -6.0521	  0.0000
     -1.1300	 16.0607	 16.0607	 -6.0521	  0.0000
     -1.1200	 16.0873	 16.0873	 -6.0521	  0.0000
     -1.1100	 16.1158	 16.1158	 -6.0521	  0.0000
     -1.1000	 16.1465	 16.1465	 -6.0521	  0.0000
     -1.0900	 16.1793	 16.1794	 -6.0521	  0.0000
     -1.0800	 16.2146	 16.2146	 -6.0521	  0.0000
     -1.0700	 16.2523	 16.2523	 -6.0521	  0.0000
     -1.0600	 16.2927	 16.2927	 -6.0521	  0.0000
     -1.0500	 16.3358	 16.3358	 -6.0521	  0.0000
     -1.0400	 16.3818	 16.3818	 -6.0521	  0.0000
