
  1   1001     1.54056     0.00000     0.00000     0.00000     0.00000    0
     0     0     0
 2Theta	Yobs	Ycal	Yobs-Ycal	Backg	Posr	(hkl)	K
     -5.0000	 29.8685	 29.8686	 -7.4672	  0.0000
     -4.9900	 26.9794	 26.9794	 -7.4671	  0.0000
     -4.9800	 25.8936	 25.8936	 -7.4671	  0.0000
     -4.9700	 25.2062	 25.2062	 -7.4671	  0.0000
     -4.9600	 24.7007	 24.7006	 -7.4671	  0.0000
     -4.9500	 24.3009	 24.3009	 -7.4671	  0.0000
     -4.9400	 23.9709	 23.9708	 -7.4671	  0.0000
     -4.9300	 23.6904	 23.6903	 -7.4671	  0.0000
     -4.9200	 23.4471	 23.4470	 -7.4671	  0.0000
     -4.9100	 23.2328	 23.2327	 -7.4671	  0.0000
     -4.9000	 23.0418	 23.0417	 -7.4671	  0.0000
     -4.8900	 22.8699	 22.8698	 -7.4671	  0.0000
     -4.8800	 22.7141	 22.7140	 -7.4671	  0.0000
     -4.8700	 22.5720	 22.5719	 -7.4671	  0.0000
     -4.8600	 22.4416	 22.4416	 -7.4671	  0.0000
     -4.8500	 22.3216	 22.3215	 -7.4671	  0.0000
     -4.8400	 22.2106	 22.2106	 -7.4671	  0.0000
     -4.8300	 22.1078	 22.1077	 -7.4671	  0.0000
     -4.8200	 22.0122	 22.0121	 -7.4671	  0.0000
     -4.8100	 21.9231	 21.9230	 -7.4671	  0.0000
     -4.8000	 21.8399	 21.8398	 -7.4671	  0.0000
     -4.7900	 21.7620	 21.7620	 -7.4671	  0.0000
     -4.7800	 21.6891	 21.6891	 -7.4671	  0.0000
     -4.7700	 21.6208	 21.6207	 -7.4671	  0.0000
     -4.7600	 21.5566	 21.5566	 -7.4671	  0.0000
     -4.7500	 21.4963	 21.4962	 -7.4671	  0.0000
     -4.7400	 21.4396	 21.4395	 -7.4671	  0.0000
     -4.7300	 21.3862	 21.3861	 -7.4671	  0.0000
     -4.7200	 21.3359	 21.3358	 -7.4671	  0.0000
     -4.7100	 21.2885	 21.2885	 -7.4671	  0.0000
     -4.7000	 21.2439	 21.2438	 -7.4671	  0.0000
     -4.6900	 21.2018	 21.2017	 -7.4671	  0.0000
     -4.6800	 21.1621	 21.1620	 -7.4671	  0.0000
     -4.6700	 21.1247	 21.1246	 -7.4671	  0.0000
     -4.6600	 21.0894	 21.0893	 -7.4671	  0.0000
     -4.6500	 21.0561	 21.0561	 -7.4671	  0.0000
     -4.6400	 21.0248	 21.0247	 -7.4671	  0.0000
     -4.6300	 20.9952	 20.9952	 -7.4671	  0.0000
     -4.6200	 20.9674	 20.9674	 -7.4671	  0.0000
     -4.6100	 20.9412	 20.9412	 -7.4671	  0.0000
     -4.6000	 20.9166	 20.9165	 -7.4671	  0.0000
     -4.5900	 20.8934	 20.8934	 -7.4671	  0.0000
     -4.5800	 20.8717	 20.8716	 -7.4671	  0.0000
     -4.5700	 20.8512	 20.8512	 -7.4671	  0.0000
     -4.5600	 20.8321	 20.8321	 -7.4671	  0.0000
     -4.5500	 20.8141	 20.8141	 -7.4671	  0.0000
     -4.5400	 20.7974	 20.7974	 -7.4671	  0.0000
     -4.5300	 20.7818	 20.7817	 -7.4671	  0.0000
     -4.5200	 20.7672	 20.7672	 -7.4671	  0.0000
     -4.5100	 20.7537	 20.7536	 -7.4671	  0.0000
     -4.5000	 20.7411	 20.7411	 -7.4671	  0.0000
     -4.4900	 20.7295	 20.7295	 -7.4671	  0.0000
     -4.4800	 20.7188	 20.7188	 -7.4671	  0.0000
     -4.4700	 20.7090	 20.7089	 -7.4671	  0.0000
     -4.4600	 20.7000	 20.7000	 -7.4671	  0.0000
     -4.4500	 20.6918	 20.6918	 -7.4671	  0.0000
     -4.4400	 20.6844	 20.6844	 -7.4671	  0.0000
     -4.4300	 20.6778	 20.6778	 -7.4671	  0.0000
     -4.4200	 20.6719	 20.6719	 -7.4671	  0.0000
     -4.4100	 20.6667	 20.6667	 -7.4671	  0.0000
     -4.4000	 20.6622	 20.6622	 -7.4671	  0.0000
     -4.3900	 20.6584	 20.6584	 -7.4671	  0.0000
     -4.3800	 20.6552	 20.6552	 -7.4671	  0.0000
     -4.3700	 20.6526	 20.6526	 -7.4671	  0.0000
     -4.3600	 20.6506	 20.6506	 -7.4671	  0.0000
     -4.3500	 20.6493	 20.6492	 -7.4671	  0.0000
     -4.3400	 20.6484	 20.6484	 -7.4671	  0.0000
     -4.3300	 20.6482	 20.6482	 -7.4671	  0.0000
     -4.3200	 20.6485	 20.6484	 -7.4671	  0.0000
     -4.3100	 20.6493	 20.6493	 -7.4671	  0.0000
     -4.3000	 20.6506	 20.6506	 -7.4671	  0.0000
     -4.2900	 20.6524	 20.6524	 -7.4671	  0.0000
     -4.2800	 20.6547	 20.6547	 -7.4671	  0.0000
     -4.2700	 20.6575	 20.6575	 -7.4671	  0.0000
     -4.2600	 20.6608	 20.6608	 -7.4671	  0.0000
     -4.2500	 20.6645	 20.6645	 -7.4671	  0.0000
     -4.2400	 20.6687	 20.6687	 -7.4671	  0.0000
     -4.2300	 20.6733	 20.6733	 -7.4671	  0.0000
     -4.2200	 20.6784	 20.6783	 -7.4671	  0.0000
     -4.2100	 20.6838	 20.6838	 -7.4671	  0.0000
     -4.2000	 20.6897	 20.6897	 -7.4671	  0.0000
     -4.1900	 20.6960	 20.6960	 -7.4671	  0.0000
     -4.1800	 20.7027	 20.7027	 -7.4671	  0.0000
     -4.1700	 20.7098	 20.7098	 -7.4671	  0.0000
     -4.1600	 20.7173	 20.7173	 -7.4671	  0.0000
     -4.1500	 20.7252	 20.7252	 -7.4671	  0.0000
     -4.1400	 20.7335	 20.7335	 -7.4671	  0.0000
     -4.1300	 20.7422	 20.7422	 -7.4671	  0.0000
     -4.1200	 20.7512	 20.7512	 -7.4671	  0.0000
     -4.1100	 20.7606	 20.7606	 -7.4671	  0.0000
     -4.1000	 20.7703	 20.7703	 -7.4671	  0.0000
     -4.0900	 20.7805	 20.7804	 -7.4671	  0.0000
     -4.0800	 20.7909	 20.7909	 -7.4671	  0.0000
     -4.0700	 20.8018	 20.8018	 -7.4671	  0.0000
     -4.0600	 20.8130	 20.8129	 -7.4671	  0.0000
     -4.0500	 20.8245	 20.8245	 -7.4671	  0.0000
     -4.0400	 20.8364	 20.8364	 -7.4671	  0.0000
     -4.0300	 20.8486	 20.8486	 -7.4671	  0.0000
     -4.0200	 20.8612	 20.8612	 -7.4671	  0.0000
     -4.0100	 20.8741	 20.8741	 -7.4671	  0.0000
     -4.0000	 20.8873	 20.8873	 -7.4671	  0.0000
     -3.9900	 20.9009	 20.9009	 -7.4671	  0.0000
     -3.9800	 20.9149	 20.9149	 -7.4671	  0.0000
     -3.9700	 20.9291	 20.9291	 -7.4671	  0.0000
     -3.9600	 20.9437	 20.9437	 -7.4671	  0.0000
     -3.9500	 20.9587	 20.9587	 -7.4671	  0.0000
     -3.9400	 20.9739	 20.9740	 -7.4672	  0.0000
     -3.9300	 20.9896	 20.9896	 -7.4671	  0.0000
     -3.9200	 21.0055	 21.0055	 -7.4671	  0.0000
     -3.9100	 21.0218	 21.0218	 -7.4672	  0.0000
     -3.9000	 21.0384	 21.0384	 -7.4671	  0.0000
     -3.8900	 21.0553	 21.0553	 -7.4671	  0.0000
     -3.8800	 21.0726	 21.0726	 -7.4671	  0.0000
     -3.8700	 21.0902	 21.0902	 -7.4671	  0.0000
     -3.8600	 21.1081	 21.1081	 -7.4672	  0.0000
     -3.8500	 21.1264	 21.1264	 -7.4671	  0.0000
     -3.8400	 21.1450	 21.1450	 -7.4671	  0.0000
     -3.8300	 21.1639	 21.1640	 -7.4671	  0.0000
     -3.8200	 21.1832	 21.1832	 -7.4671	  0.0000
     -3.8100	 21.2028	 21.2028	 -7.4671	  0.0000
     -3.8000	 21.2228	 21.2228	 -7.4672	  0.0000
     -3.7900	 21.2431	 21.2431	 -7.4672	  0.0000
     -3.7800	 21.2637	 21.2637	 -7.4671	  0.0000
     -3.7700	 21.2846	 21.2846	 -7.4672	  0.0000
     -3.7600	 21.3059	 21.3059	 -7.4671	  0.0000
     -3.7500	 21.3276	 21.3276	 -7.4671	  0.0000
     -3.7400	 21.3495	 21.3495	 -7.4672	  0.0000
     -3.7300	 21.3718	 21.3719	 -7.4672	  0.0000
     -3.7200	 21.3945	 21.3945	 -7.4672	  0.0000
     -3.7100	 21.4175	 21.4175	 -7.4672	  0.0000
     -3.7000	 21.4408	 21.4408	 -7.4672	  0.0000
     -3.6900	 21.4645	 21.4645	 -7.4671	  0.0000
     -3.6800	 21.4885	 21.4885	 -7.4672	  0.0000
     -3.6700	 21.5128	 21.5128	 -7.4671	  0.0000
     -3.6600	 21.5375	 21.5375	 -7.4671	  0.0000
     -3.6500	 21.5625	 21.5625	 -7.4672	  0.0000
     -3.6400	 21.5879	 21.5879	 -7.4672	  0.0000
     -3.6300	 21.6136	 21.6136	 -7.4672	  0.0000
     -3.6200	 21.6396	 21.6396	 -7.4671	  0.0000
     -3.6100	 21.6659	 21.6659	 -7.4672	  0.0000
     -3.6000	 21.6926	 21.6926	 -7.4671	  0.0000
     -3.5900	 21.7195	 21.7195	 -7.4672	  0.0000
     -3.5800	 21.7468	 21.7468	 -7.4671	  0.0000
     -3.5700	 21.7744	 21.7744	 -7.4671	  0.0000
     -3.5600	 21.8023	 21.8023	 -7.4672	  0.0000
     -3.5500	 21.8305	 21.8305	 -7.4672	  0.0000
     -3.5400	 21.8589	 21.8590	 -7.4672	  0.0000
     -3.5300	 21.8877	 21.8877	 -7.4671	  0.0000
     -3.5200	 21.9167	 21.9167	 -7.4672	  0.0000
     -3.5100	 21.9459	 21.9459	 -7.4672	  0.0000
     -3.5000	 21.9754	 21.9754	 -7.4672	  0.0000
     -3.4900	 22.0051	 22.0051	 -7.4671	  0.0000
     -3.4800	 22.0350	 22.0350	 -7.4672	  0.0000
     -3.4700	 22.0651	 22.0651	 -7.4672	  0.0000
     -3.4600	 22.0954	 22.0954	 -7.4672	  0.0000
     -3.4500	 22.1257	 22.1258	 -7.4672	  0.0000
     -3.4400	 22.1562	 22.1562	 -7.4672	  0.0000
     -3.4300	 22.1868	 22.1868	 -7.4671	  0.0000
     -3.4200	 22.2174	 22.2174	 -7.4672	  0.0000
     -3.4100	 22.2480	 22.2480	 -7.4672	  0.0000
     -3.4000	 22.2786	 22.2786	 -7.4672	  0.0000
     -3.3900	 22.3091	 22.3092	 -7.4672	  0.0000
     -3.3800	 22.3396	 22.3396	 -7.4672	  0.0000
     -3.3700	 22.3698	 22.3698	 -7.4672	  0.0000
     -3.3600	 22.3998	 22.3998	 -7.4672	  0.0000
     -3.3500	 22.4295	 22.4295	 -7.4672	  0.0000
     -3.3400	 22.4589	 22.4589	 -7.4672	  0.0000
     -3.3300	 22.4879	 22.4879	 -7.4672	  0.0000
     -3.3200	 22.5164	 22.5164	 -7.4672	  0.0000
     -3.3100	 22.5444	 22.5444	 -7.4672	  0.0000
     -3.3000	 22.5717	 22.5717	 -7.4672	  0.0000
     -3.2900	 22.5983	 22.5983	 -7.4672	  0.0000
     -3.2800	 22.6241	 22.6241	 -7.4671	  0.0000
     -3.2700	 22.6491	 22.6491	 -7.4672	  0.0000
     -3.2600	 22.6730	 22.6730	 -7.4672	  0.0000
     -3.2500	 22.6959	 22.6959	 -7.4672	  0.0000
     -3.2400	 22.7176	 22.7176	 -7.4672	  0.0000
     -3.2300	 22.7381	 22.7381	 -7.4672	  0.0000
     -3.2200	 22.7572	 22.7572	 -7.4672	  0.0000
     -3.2100	 22.7748	 22.7748	 -7.4672	  0.0000
     -3.2000	 22.7910	 22.7910	 -7.4672	  0.0000
     -3.1900	 22.8055	 22.8055	 -7.4672	  0.0000
     -3.1800	 22.8183	 22.8184	 -7.4672	  0.0000
     -3.1700	 22.8294	 22.8295	 -7.4672	  0.0000
     -3.1600	 22.8387	 22.8387	 -7.4672	  0.0000
     -3.1500	 22.8461	 22.8461	 -7.4672	  0.0000
     -3.1400	 22.8516	 22.8516	 -7.4672	  0.0000
     -3.1300	 22.8551	 22.8552	 -7.4672	  0.0000
     -3.1200	 22.8567	 22.8567	 -7.4672	  0.0000
     -3.1100	 22.8563	 22.8563	 -7.4672	  0.0000
     -3.1000	 22.8540	 22.8540	 -7.4672	  0.0000
     -3.0900	 22.8497	 22.8497	 -7.4672	  0.0000
     -3.0800	 22.8434	 22.8434	 -7.4672	  0.0000
     -3.0700	 22.8353	 22.8353	 -7.4672	  0.0000
     -3.0600	 22.8254	 22.8254	 -7.4672	  0.0000
     -3.0500	 22.8137	 22.8137	 -7.4672	  0.0000
     -3.0400	 22.8002	 22.8002	 -7.4672	  0.0000
     -3.0300	 22.7852	 22.7852	 -7.4672	  0.0000
     -3.0200	 22.7686	 22.7686	 -7.4672	  0.0000
     -3.0100	 22.7505	 22.7505	 -7.4672	  0.0000
     -3.0000	 22.7310	 22.7310	 -7.4672	  0.0000
     -2.9900	 22.7103	 22.7103	 -7.4672	  0.0000
     -2.9800	 22.6884	 22.6884	 -7.4672	  0.0000
     -2.9700	 22.6653	 22.6653	 -7.4671	  0.0000
     -2.9600	 22.6413	 22.6413	 -7.4672	  0.0000
     -2.9500	 22.6163	 22.6163	 -7.4672	  0.0000
     -2.9400	 22.5905	 22.5905	 -7.4672	  0.0000
     -2.9300	 22.5640	 22.5640	 -7.4672	  0.0000
     -2.9200	 22.5368	 22.5368	 -7.4672	  0.0000
     -2.9100	 22.5090	 22.5090	 -7.4672	  0.0000
     -2.9000	 22.4807	 22.4807	 -7.4672	  0.0000
     -2.8900	 22.4520	 22.4520	 -7.4672	  0.0000
     -2.8800	 22.4228	 22.4229	 -7.4672	  0.0000
     -2.8700	 22.3934	 22.3934	 -7.4672	  0.0000
     -2.8600	 22.3637	 22.3638	 -7.4672	  0.0000
     -2.8500	 22.3339	 22.3339	 -7.4672	  0.0000
     -2.8400	 22.3038	 22.3038	 -7.4672	  0.0000
     -2.8300	 22.2737	 22.2737	 -7.4672	  0.0000
     -2.8200	 22.2435	 22.2435	 -7.4672	  0.0000
     -2.8100	 22.2133	 22.2133	 -7.4672	  0.0000
     -2.8000	 22.1830	 22.1831	 -7.4672	  0.0000
     -2.7900	 22.1529	 22.1529	 -7.4672	  0.0000
     -2.7800	 22.1228	 22.1228	 -7.4672	  0.0000
     -2.7700	 22.0928	 22.0928	 -7.4671	  0.0000
     -2.7600	 22.0629	 22.0629	 -7.4671	  0.0000
     -2.7500	 22.0331	 22.0332	 -7.4671	  0.0000
     -2.7400	 22.0036	 22.0036	 -7.4672	  0.0000
     -2.7300	 21.9742	 21.9742	 -7.4672	  0.0000
     -2.7200	 21.9450	 21.9450	 -7.4672	  0.0000
     -2.7100	 21.9160	 21.9160	 -7.4672	  0.0000
     -2.7000	 21.8872	 21.8872	 -7.4671	  0.0000
     -2.6900	 21.8587	 21.8587	 -7.4672	  0.0000
     -2.6800	 21.8304	 21.8304	 -7.4672	  0.0000
     -2.6700	 21.8023	 21.8023	 -7.4672	  0.0000
     -2.6600	 21.7745	 21.7745	 -7.4672	  0.0000
     -2.6500	 21.7470	 21.7470	 -7.4672	  0.0000
     -2.6400	 21.7197	 21.7197	 -7.4672	  0.0000
     -2.6300	 21.6927	 21.6927	 -7.4672	  0.0000
     -2.6200	 21.6659	 21.6659	 -7.4671	  0.0000
     -2.6100	 21.6395	 21.6395	 -7.4672	  0.0000
     -2.6000	 21.6133	 21.6133	 -7.4671	  0.0000
     -2.5900	 21.5874	 21.5874	 -7.4672	  0.0000
     -2.5800	 21.5617	 21.5618	 -7.4672	  0.0000
     -2.5700	 21.5364	 21.5364	 -7.4672	  0.0000
     -2.5600	 21.5113	 21.5113	 -7.4672	  0.0000
     -2.5500	 21.4865	 21.4865	 -7.4671	  0.0000
     -2.5400	 21.4620	 21.4620	 -7.4671	  0.0000
     -2.5300	 21.4377	 21.4378	 -7.4672	  0.0000
     -2.5200	 21.4138	 21.4138	 -7.4672	  0.0000
     -2.5100	 21.3901	 21.3901	 -7.4671	  0.0000
     -2.5000	 21.3667	 21.3667	 -7.4672	  0.0000
     -2.4900	 21.3435	 21.3435	 -7.4672	  0.0000
     -2.4800	 21.3206	 21.3206	 -7.4672	  0.0000
     -2.4700	 21.2980	 21.2980	 -7.4672	  0.0000
     -2.4600	 21.2756	 21.2757	 -7.4672	  0.0000
     -2.4500	 21.2535	 21.2536	 -7.4672	  0.0000
     -2.4400	 21.2317	 21.2317	 -7.4672	  0.0000
     -2.4300	 21.2101	 21.2101	 -7.4671	  0.0000
     -2.4200	 21.1888	 21.1888	 -7.4671	  0.0000
     -2.4100	 21.1677	 21.1677	 -7.4672	  0.0000
     -2.4000	 21.1469	 21.1469	 -7.4672	  0.0000
     -2.3900	 21.1263	 21.1263	 -7.4672	  0.0000
     -2.3800	 21.1060	 21.1060	 -7.4672	  0.0000
     -2.3700	 21.0859	 21.0859	 -7.4671	  0.0000
     -2.3600	 21.0660	 21.0660	 -7.4672	  0.0000
     -2.3500	 21.0464	 21.0464	 -7.4672	  0.0000
     -2.3400	 21.0270	 21.0270	 -7.4671	  0.0000
     -2.3300	 21.0078	 21.0078	 -7.4671	  0.0000
     -2.3200	 20.9888	 20.9888	 -7.4672	  0.0000
     -2.3100	 20.9701	 20.9701	 -7.4671	  0.0000
     -2.3000	 20.9516	 20.9516	 -7.4672	  0.0000
     -2.2900	 20.9333	 20.9333	 -7.4672	  0.0000
     -2.2800	 20.9153	 20.9153	 -7.4672	  0.0000
     -2.2700	 20.8974	 20.8974	 -7.4671	  0.0000
     -2.2600	 20.8798	 20.8798	 -7.4671	  0.0000
     -2.2500	 20.8623	 20.8623	 -7.4672	  0.0000
     -2.2400	 20.8451	 20.8451	 -7.4671	  0.0000
     -2.2300	 20.8281	 20.8281	 -7.4672	  0.0000
     -2.2200	 20.8112	 20.8112	 -7.4672	  0.0000
     -2.2100	 20.7946	 20.7946	 -7.4672	  0.0000
     -2.2000	 20.7782	 20.7782	 -7.4672	  0.0000
     -2.1900	 20.7619	 20.7619	 -7.4671	  0.0000
     -2.1800	 20.7458	 20.7459	 -7.4672	  0.0000
     -2.1700	 20.7300	 20.7300	 -7.4671	  0.0000
     -2.1600	 20.7143	 20.7143	 -7.4671	  0.0000
     -2.1500	 20.6988	 20.6988	 -7.4672	  0.0000
     -2.1400	 20.6835	 20.6835	 -7.4671	  0.0000
     -2.1300	 20.6684	 20.6684	 -7.4671	  0.0000
     -2.1200	 20.6534	 20.6534	 -7.4672	  0.0000
     -2.1100	 20.6386	 20.6386	 -7.4672	  0.0000
     -2.1000	 20.6240	 20.6240	 -7.4671	  0.0000
     -2.0900	 20.6096	 20.6096	 -7.4671	  0.0000
     -2.0800	 20.5953	 20.5953	 -7.4671	  0.0000
     -2.0700	 20.5812	 20.5812	 -7.4672	  0.0000
     -2.0600	 20.5673	 20.5673	 -7.4671	  0.0000
     -2.0500	 20.5536	 20.5536	 -7.4671	  0.0000
     -2.0400	 20.5400	 20.5400	 -7.4672	  0.0000
     -2.0300	 20.5265	 20.5265	 -7.4671	  0.0000
     -2.0200	 20.5133	 20.5133	 -7.4672	  0.0000
     -2.0100	 20.5001	 20.5001	 -7.4672	  0.0000
     -2.0000	 20.4872	 20.4872	 -7.4672	  0.0000
     -1.9900	 20.4744	 20.4744	 -7.4671	  0.0000
     -1.9800	 20.4617	 20.4617	 -7.4672	  0.0000
     -1.9700	 20.4492	 20.4493	 -7.4672	  0.0000
     -1.9600	 20.4369	 20.4369	 -7.4672	  0.0000
     -1.9500	 20.4247	 20.4247	 -7.4671	  0.0000
     -1.9400	 20.4127	 20.4127	 -7.4672	  0.0000
     -1.9300	 20.4008	 20.4008	 -7.4672	  0.0000
     -1.9200	 20.3891	 20.3891	 -7.4672	  0.0000
     -1.9100	 20.3775	 20.3775	 -7.4672	  0.0000
     -1.9000	 20.3660	 20.3660	 -7.4671	  0.0000
     -1.8900	 20.3547	 20.3547	 -7.4671	  0.0000
     -1.8800	 20.3436	 20.3436	 -7.4671	  0.0000
     -1.8700	 20.3326	 20.3326	 -7.4671	  0.0000
     -1.8600	 20.3217	 20.3217	 -7.4671	  0.0000
     -1.8500	 20.3110	 20.3110	 -7.4671	  0.0000
     -1.8400	 20.3004	 20.3004	 -7.4672	  0.0000
     -1.8300	 20.2899	 20.2900	 -7.4672	  0.0000
     -1.8200	 20.2797	 20.2797	 -7.4671	  0.0000
     -1.8100	 20.2695	 20.2695	 -7.4671	  0.0000
     -1.8000	 20.2595	 20.2595	 -7.4672	  0.0000
     -1.7900	 20.2496	 20.2496	 -7.4671	  0.0000
     -1.7800	 20.2399	 20.2399	 -7.4672	  0.0000
     -1.7700	 20.2303	 20.2303	 -7.4671	  0.0000
     -1.7600	 20.2208	 20.2208	 -7.4672	  0.0000
     -1.7500	 20.2115	 20.2115	 -7.4671	  0.0000
     -1.7400	 20.2023	 20.2023	 -7.4671	  0.0000
     -1.7300	 20.1933	 20.1933	 -7.4671	  0.0000
     -1.7200	 20.1844	 20.1844	 -7.4671	  0.0000
     -1.7100	 20.1757	 20.1757	 -7.4671	  0.0000
     -1.7000	 20.1671	 20.1671	 -7.4671	  0.0000
     -1.6900	 20.1586	 20.1586	 -7.4671	  0.0000
     -1.6800	 20.1503	 20.1503	 -7.4672	  0.0000
     -1.6700	 20.1421	 20.1421	 -7.4672	  0.0000
     -1.6600	 20.1341	 20.1341	 -7.4671	  0.0000
     -1.6500	 20.1262	 20.1262	 -7.4672	  0.0000
     -1.6400	 20.1185	 20.1185	 -7.4671	  0.0000
     -1.6300	 20.1109	 20.1109	 -7.4671	  0.0000
     -1.6200	 20.1035	 20.1035	 -7.4672	  0.0000
     -1.6100	 20.0962	 20.0962	 -7.4671	  0.0000
     -1.6000	 20.0891	 20.0891	 -7.4671	  0.0000
     -1.5900	 20.0822	 20.0822	 -7.4671	  0.0000
     -1.5800	 20.0754	 20.0754	 -7.4672	  0.0000
     -1.5700	 20.0688	 20.0688	 -7.4671	  0.0000
     -1.5600	 20.0623	 20.0623	 -7.4672	  0.0000
     -1.5500	 20.0560	 20.0560	 -7.4671	  0.0000
     -1.5400	 20.0499	 20.0499	 -7.4672	  0.0000
     -1.5300	 20.0440	 20.0440	 -7.4672	  0.0000
     -1.5200	 20.0382	 20.0382	 -7.4672	  0.0000
     -1.5100	 20.0327	 20.0327	 -7.4672	  0.0000
     -1.5000	 20.0273	 20.0273	 -7.4671	  0.0000
     -1.4900	 20.0221	 20.0222	 -7.4672	  0.0000
     -1.4800	 20.0172	 20.0172	 -7.4671	  0.0000
     -1.4700	 20.0124	 20.0124	 -7.4671	  0.0000
     -1.4600	 20.0079	 20.0079	 -7.4672	  0.0000
     -1.4500	 20.0036	 20.0036	 -7.4672	  0.0000
     -1.4400	 19.9995	 19.9995	 -7.4671	  0.0000
     -1.4300	 19.9956	 19.9956	 -7.4672	  0.0000
     -1.4200	 19.9920	 19.9920	 -7.4671	  0.0000
     -1.4100	 19.9887	 19.9887	 -7.4671	  0.0000
     -1.4000	 19.9856	 19.9856	 -7.4672	  0.0000
     -1.3900	 19.9828	 19.9829	 -7.4671	  0.0000
     -1.3800	 19.9804	 19.9804	 -7.4671	  0.0000
     -1.3700	 19.9782	 19.9782	 -7.4672	  0.0000
     -1.3600	 19.9763	 19.9763	 -7.4672	  0.0000
     -1.3500	 19.9748	 19.9748	 -7.4671	  0.0000
     -1.3400	 19.9736	 19.9736	 -7.4672	  0.0000
     -1.3300	 19.9728	 19.9728	 -7.4671	  0.0000
     -1.3200	 19.9724	 19.9724	 -7.4671	  0.0000
     -1.3100	 19.9725	 19.9725	 -7.4671	  0.0000
     -1.3000	 19.9729	 19.9729	 -7.4672	  0.0000
     -1.2900	 19.9738	 19.9738	 -7.4671	  0.0000
     -1.2800	 19.9753	 19.9753	 -7.4671	  0.0000
     -1.2700	 19.9772	 19.9772	 -7.4671	  0.0000
     -1.2600	 19.9797	 19.9797	 -7.4671	  0.0000
     -1.2500	 19.9828	 19.9828	 -7.4672	  0.0000
     -1.2400	 19.9865	 19.9865	 -7.4672	  0.0000
     -1.2300	 19.9909	 19.9909	 -7.4672	  0.0000
     -1.2200	 19.9960	 19.9960	 -7.4671	  0.0000
     -1.2100	 20.0019	 20.0019	 -7.4671	  0.0000
     -1.2000	 20.0087	 20.0087	 -7.4671	  0.0000
     -1.1900	 20.0163	 20.0163	 -7.4672	  0.0000
     -1.1800	 20.0249	 20.0249	 -7.4672	  0.0000
     -1.1700	 20.0345	 20.0345	 -7.4671	  0.0000
     -1.1600	 20.0451	 20.0451	 -7.4672	  0.0000
     -1.1500	 20.0570	 20.0570	 -7.4672	  0.0000
     -1.1400	 20.0702	 20.0702	 -7.4671	  0.0000
     -1.1300	 20.0847	 20.0847	 -7.4671	  0.0000
     -1.1200	 20.1007	 20.1007	 -7.4671	  0.0000
     -1.1100	 20.1183	 20.1183	 -7.4672	  0.0000
     -1.1000	 20.1376	 20.1376	 -7.4672	  0.0000
     -1.0900	 20.1588	 20.1588	 -7.4671	  0.0000
     -1.0800	 20.1820	 20.1820	 -7.4671	  0.0000
     -1.0700	 20.2072	 20.2072	 -7.4672	  0.0000
     -1.0600	 20.2348	 20.2348	 -7.4672	  0.0000
     -1.0500	 20.2648	 20.2648	 -7.4672	  0.0000
     -1.0400	 20.2974	 20.2974	 -7.4671	  0.0000
